# 361 angles,  1 tensor ranks for 0=projectile
@subtitle   "25Al(d,n)26Si"                                                                 
@legend ON
@legend x1 0.2
@legend y1 0.8
@g0 type LOGY
@yaxis ticklabel format power
@xaxis label "Scattering angle (degrees)"
@yaxis label "Cross section (mb/sr)"
@legend string   0 "Partition=  1 Excit=  1 near/far= 1"
#legend string   0 "Lab energy =   98.9000"
@s0 linestyle   1
#  Theta       sigma       iT11        T20         T21         T22         Kyy for projectile
  0.1000E-01   1.000    
  0.5000      0.9995    
   1.000      0.9993    
   1.500       1.002    
   2.000       1.007    
   2.500       1.013    
   3.000       1.018    
   3.500       1.020    
   4.000       1.020    
   4.500       1.016    
   5.000       1.010    
   5.500       1.000    
   6.000      0.9878    
   6.500      0.9728    
   7.000      0.9559    
   7.500      0.9372    
   8.000      0.9174    
   8.500      0.8968    
   9.000      0.8759    
   9.500      0.8549    
   10.00      0.8343    
   10.50      0.8144    
   11.00      0.7954    
   11.50      0.7776    
   12.00      0.7612    
   12.50      0.7464    
   13.00      0.7332    
   13.50      0.7218    
   14.00      0.7123    
   14.50      0.7046    
   15.00      0.6988    
   15.50      0.6949    
   16.00      0.6927    
   16.50      0.6923    
   17.00      0.6934    
   17.50      0.6961    
   18.00      0.7002    
   18.50      0.7056    
   19.00      0.7120    
   19.50      0.7194    
   20.00      0.7276    
   20.50      0.7365    
   21.00      0.7458    
   21.50      0.7554    
   22.00      0.7652    
   22.50      0.7749    
   23.00      0.7845    
   23.50      0.7937    
   24.00      0.8025    
   24.50      0.8107    
   25.00      0.8181    
   25.50      0.8247    
   26.00      0.8304    
   26.50      0.8351    
   27.00      0.8387    
   27.50      0.8410    
   28.00      0.8422    
   28.50      0.8421    
   29.00      0.8407    
   29.50      0.8380    
   30.00      0.8339    
   30.50      0.8286    
   31.00      0.8219    
   31.50      0.8141    
   32.00      0.8049    
   32.50      0.7946    
   33.00      0.7832    
   33.50      0.7708    
   34.00      0.7574    
   34.50      0.7431    
   35.00      0.7280    
   35.50      0.7121    
   36.00      0.6957    
   36.50      0.6788    
   37.00      0.6614    
   37.50      0.6437    
   38.00      0.6258    
   38.50      0.6078    
   39.00      0.5899    
   39.50      0.5720    
   40.00      0.5542    
   40.50      0.5368    
   41.00      0.5198    
   41.50      0.5032    
   42.00      0.4871    
   42.50      0.4717    
   43.00      0.4569    
   43.50      0.4429    
   44.00      0.4297    
   44.50      0.4173    
   45.00      0.4058    
   45.50      0.3952    
   46.00      0.3855    
   46.50      0.3768    
   47.00      0.3691    
   47.50      0.3623    
   48.00      0.3565    
   48.50      0.3516    
   49.00      0.3477    
   49.50      0.3447    
   50.00      0.3426    
   50.50      0.3414    
   51.00      0.3409    
   51.50      0.3412    
   52.00      0.3423    
   52.50      0.3440    
   53.00      0.3463    
   53.50      0.3492    
   54.00      0.3526    
   54.50      0.3564    
   55.00      0.3606    
   55.50      0.3652    
   56.00      0.3699    
   56.50      0.3749    
   57.00      0.3800    
   57.50      0.3852    
   58.00      0.3905    
   58.50      0.3957    
   59.00      0.4008    
   59.50      0.4057    
   60.00      0.4105    
   60.50      0.4151    
   61.00      0.4194    
   61.50      0.4235    
   62.00      0.4272    
   62.50      0.4306    
   63.00      0.4336    
   63.50      0.4362    
   64.00      0.4384    
   64.50      0.4403    
   65.00      0.4417    
   65.50      0.4427    
   66.00      0.4433    
   66.50      0.4435    
   67.00      0.4433    
   67.50      0.4427    
   68.00      0.4418    
   68.50      0.4406    
   69.00      0.4390    
   69.50      0.4371    
   70.00      0.4350    
   70.50      0.4327    
   71.00      0.4302    
   71.50      0.4275    
   72.00      0.4247    
   72.50      0.4218    
   73.00      0.4188    
   73.50      0.4158    
   74.00      0.4129    
   74.50      0.4099    
   75.00      0.4071    
   75.50      0.4043    
   76.00      0.4017    
   76.50      0.3993    
   77.00      0.3971    
   77.50      0.3951    
   78.00      0.3933    
   78.50      0.3918    
   79.00      0.3906    
   79.50      0.3897    
   80.00      0.3892    
   80.50      0.3889    
   81.00      0.3890    
   81.50      0.3894    
   82.00      0.3902    
   82.50      0.3913    
   83.00      0.3928    
   83.50      0.3946    
   84.00      0.3967    
   84.50      0.3992    
   85.00      0.4019    
   85.50      0.4049    
   86.00      0.4082    
   86.50      0.4118    
   87.00      0.4155    
   87.50      0.4195    
   88.00      0.4237    
   88.50      0.4279    
   89.00      0.4323    
   89.50      0.4368    
   90.00      0.4414    
   90.50      0.4460    
   91.00      0.4505    
   91.50      0.4551    
   92.00      0.4595    
   92.50      0.4639    
   93.00      0.4681    
   93.50      0.4721    
   94.00      0.4760    
   94.50      0.4796    
   95.00      0.4829    
   95.50      0.4860    
   96.00      0.4888    
   96.50      0.4912    
   97.00      0.4932    
   97.50      0.4949    
   98.00      0.4962    
   98.50      0.4970    
   99.00      0.4974    
   99.50      0.4973    
   100.0      0.4968    
   100.5      0.4958    
   101.0      0.4943    
   101.5      0.4923    
   102.0      0.4898    
   102.5      0.4868    
   103.0      0.4833    
   103.5      0.4793    
   104.0      0.4748    
   104.5      0.4698    
   105.0      0.4644    
   105.5      0.4585    
   106.0      0.4522    
   106.5      0.4454    
   107.0      0.4382    
   107.5      0.4306    
   108.0      0.4226    
   108.5      0.4142    
   109.0      0.4056    
   109.5      0.3966    
   110.0      0.3873    
   110.5      0.3778    
   111.0      0.3680    
   111.5      0.3580    
   112.0      0.3479    
   112.5      0.3376    
   113.0      0.3272    
   113.5      0.3168    
   114.0      0.3062    
   114.5      0.2957    
   115.0      0.2851    
   115.5      0.2746    
   116.0      0.2642    
   116.5      0.2538    
   117.0      0.2436    
   117.5      0.2336    
   118.0      0.2237    
   118.5      0.2140    
   119.0      0.2046    
   119.5      0.1954    
   120.0      0.1865    
   120.5      0.1779    
   121.0      0.1696    
   121.5      0.1617    
   122.0      0.1542    
   122.5      0.1471    
   123.0      0.1403    
   123.5      0.1340    
   124.0      0.1281    
   124.5      0.1226    
   125.0      0.1177    
   125.5      0.1131    
   126.0      0.1091    
   126.5      0.1055    
   127.0      0.1025    
   127.5      0.9990E-01
   128.0      0.9782E-01
   128.5      0.9624E-01
   129.0      0.9516E-01
   129.5      0.9457E-01
   130.0      0.9448E-01
   130.5      0.9489E-01
   131.0      0.9578E-01
   131.5      0.9716E-01
   132.0      0.9902E-01
   132.5      0.1013    
   133.0      0.1041    
   133.5      0.1074    
   134.0      0.1110    
   134.5      0.1152    
   135.0      0.1197    
   135.5      0.1246    
   136.0      0.1300    
   136.5      0.1357    
   137.0      0.1418    
   137.5      0.1482    
   138.0      0.1550    
   138.5      0.1621    
   139.0      0.1695    
   139.5      0.1772    
   140.0      0.1852    
   140.5      0.1935    
   141.0      0.2020    
   141.5      0.2108    
   142.0      0.2197    
   142.5      0.2289    
   143.0      0.2383    
   143.5      0.2478    
   144.0      0.2575    
   144.5      0.2674    
   145.0      0.2773    
   145.5      0.2874    
   146.0      0.2976    
   146.5      0.3079    
   147.0      0.3183    
   147.5      0.3287    
   148.0      0.3392    
   148.5      0.3497    
   149.0      0.3603    
   149.5      0.3709    
   150.0      0.3815    
   150.5      0.3920    
   151.0      0.4026    
   151.5      0.4131    
   152.0      0.4236    
   152.5      0.4341    
   153.0      0.4445    
   153.5      0.4548    
   154.0      0.4651    
   154.5      0.4753    
   155.0      0.4854    
   155.5      0.4954    
   156.0      0.5054    
   156.5      0.5152    
   157.0      0.5249    
   157.5      0.5345    
   158.0      0.5439    
   158.5      0.5533    
   159.0      0.5625    
   159.5      0.5715    
   160.0      0.5804    
   160.5      0.5892    
   161.0      0.5978    
   161.5      0.6062    
   162.0      0.6145    
   162.5      0.6226    
   163.0      0.6305    
   163.5      0.6383    
   164.0      0.6458    
   164.5      0.6532    
   165.0      0.6604    
   165.5      0.6674    
   166.0      0.6742    
   166.5      0.6808    
   167.0      0.6872    
   167.5      0.6933    
   168.0      0.6993    
   168.5      0.7050    
   169.0      0.7106    
   169.5      0.7159    
   170.0      0.7209    
   170.5      0.7258    
   171.0      0.7304    
   171.5      0.7348    
   172.0      0.7389    
   172.5      0.7428    
   173.0      0.7465    
   173.5      0.7499    
   174.0      0.7531    
   174.5      0.7561    
   175.0      0.7587    
   175.5      0.7612    
   176.0      0.7634    
   176.5      0.7653    
   177.0      0.7670    
   177.5      0.7684    
   178.0      0.7695    
   178.5      0.7704    
   179.0      0.7711    
   179.5      0.7715    
   180.0      0.7716    
 END
@legend string   1 "Partition=  2 Excit=  1 near/far= 1"
#legend string   0 "Lab energy =   98.9000"
@s1 linestyle   2
#  Theta       sigma       iT11        T20         T21         T22         Kyy for projectile
   0.000      0.2650    
  0.5000      0.2650    
   1.000      0.2652    
   1.500      0.2654    
   2.000      0.2658    
   2.500      0.2663    
   3.000      0.2670    
   3.500      0.2680    
   4.000      0.2692    
   4.500      0.2708    
   5.000      0.2728    
   5.500      0.2753    
   6.000      0.2783    
   6.500      0.2820    
   7.000      0.2863    
   7.500      0.2913    
   8.000      0.2972    
   8.500      0.3039    
   9.000      0.3116    
   9.500      0.3202    
   10.00      0.3299    
   10.50      0.3406    
   11.00      0.3524    
   11.50      0.3653    
   12.00      0.3794    
   12.50      0.3945    
   13.00      0.4108    
   13.50      0.4282    
   14.00      0.4466    
   14.50      0.4661    
   15.00      0.4865    
   15.50      0.5078    
   16.00      0.5300    
   16.50      0.5529    
   17.00      0.5765    
   17.50      0.6007    
   18.00      0.6253    
   18.50      0.6504    
   19.00      0.6756    
   19.50      0.7011    
   20.00      0.7265    
   20.50      0.7518    
   21.00      0.7769    
   21.50      0.8017    
   22.00      0.8260    
   22.50      0.8497    
   23.00      0.8727    
   23.50      0.8949    
   24.00      0.9161    
   24.50      0.9363    
   25.00      0.9553    
   25.50      0.9732    
   26.00      0.9897    
   26.50       1.005    
   27.00       1.018    
   27.50       1.031    
   28.00       1.041    
   28.50       1.050    
   29.00       1.057    
   29.50       1.063    
   30.00       1.067    
   30.50       1.069    
   31.00       1.070    
   31.50       1.068    
   32.00       1.065    
   32.50       1.061    
   33.00       1.055    
   33.50       1.047    
   34.00       1.038    
   34.50       1.027    
   35.00       1.015    
   35.50       1.001    
   36.00      0.9862    
   36.50      0.9701    
   37.00      0.9529    
   37.50      0.9346    
   38.00      0.9154    
   38.50      0.8953    
   39.00      0.8743    
   39.50      0.8527    
   40.00      0.8304    
   40.50      0.8076    
   41.00      0.7843    
   41.50      0.7606    
   42.00      0.7367    
   42.50      0.7126    
   43.00      0.6884    
   43.50      0.6641    
   44.00      0.6399    
   44.50      0.6158    
   45.00      0.5919    
   45.50      0.5683    
   46.00      0.5449    
   46.50      0.5220    
   47.00      0.4995    
   47.50      0.4775    
   48.00      0.4560    
   48.50      0.4352    
   49.00      0.4149    
   49.50      0.3953    
   50.00      0.3765    
   50.50      0.3583    
   51.00      0.3409    
   51.50      0.3242    
   52.00      0.3084    
   52.50      0.2933    
   53.00      0.2791    
   53.50      0.2656    
   54.00      0.2530    
   54.50      0.2412    
   55.00      0.2301    
   55.50      0.2199    
   56.00      0.2105    
   56.50      0.2019    
   57.00      0.1940    
   57.50      0.1868    
   58.00      0.1804    
   58.50      0.1747    
   59.00      0.1697    
   59.50      0.1654    
   60.00      0.1616    
   60.50      0.1585    
   61.00      0.1560    
   61.50      0.1540    
   62.00      0.1526    
   62.50      0.1516    
   63.00      0.1511    
   63.50      0.1511    
   64.00      0.1515    
   64.50      0.1522    
   65.00      0.1533    
   65.50      0.1547    
   66.00      0.1564    
   66.50      0.1584    
   67.00      0.1606    
   67.50      0.1631    
   68.00      0.1657    
   68.50      0.1684    
   69.00      0.1714    
   69.50      0.1744    
   70.00      0.1775    
   70.50      0.1807    
   71.00      0.1839    
   71.50      0.1872    
   72.00      0.1904    
   72.50      0.1937    
   73.00      0.1969    
   73.50      0.2001    
   74.00      0.2032    
   74.50      0.2063    
   75.00      0.2093    
   75.50      0.2122    
   76.00      0.2149    
   76.50      0.2176    
   77.00      0.2202    
   77.50      0.2226    
   78.00      0.2249    
   78.50      0.2270    
   79.00      0.2290    
   79.50      0.2309    
   80.00      0.2326    
   80.50      0.2341    
   81.00      0.2355    
   81.50      0.2367    
   82.00      0.2377    
   82.50      0.2386    
   83.00      0.2393    
   83.50      0.2399    
   84.00      0.2403    
   84.50      0.2405    
   85.00      0.2406    
   85.50      0.2405    
   86.00      0.2403    
   86.50      0.2399    
   87.00      0.2394    
   87.50      0.2388    
   88.00      0.2380    
   88.50      0.2370    
   89.00      0.2360    
   89.50      0.2348    
   90.00      0.2335    
   90.50      0.2321    
   91.00      0.2306    
   91.50      0.2289    
   92.00      0.2272    
   92.50      0.2254    
   93.00      0.2235    
   93.50      0.2215    
   94.00      0.2194    
   94.50      0.2173    
   95.00      0.2151    
   95.50      0.2128    
   96.00      0.2105    
   96.50      0.2082    
   97.00      0.2057    
   97.50      0.2033    
   98.00      0.2008    
   98.50      0.1983    
   99.00      0.1957    
   99.50      0.1932    
   100.0      0.1906    
   100.5      0.1880    
   101.0      0.1854    
   101.5      0.1828    
   102.0      0.1803    
   102.5      0.1777    
   103.0      0.1751    
   103.5      0.1726    
   104.0      0.1700    
   104.5      0.1675    
   105.0      0.1651    
   105.5      0.1626    
   106.0      0.1602    
   106.5      0.1579    
   107.0      0.1556    
   107.5      0.1533    
   108.0      0.1511    
   108.5      0.1489    
   109.0      0.1468    
   109.5      0.1448    
   110.0      0.1428    
   110.5      0.1409    
   111.0      0.1390    
   111.5      0.1372    
   112.0      0.1355    
   112.5      0.1338    
   113.0      0.1323    
   113.5      0.1307    
   114.0      0.1293    
   114.5      0.1280    
   115.0      0.1267    
   115.5      0.1255    
   116.0      0.1244    
   116.5      0.1233    
   117.0      0.1224    
   117.5      0.1215    
   118.0      0.1207    
   118.5      0.1199    
   119.0      0.1193    
   119.5      0.1187    
   120.0      0.1182    
   120.5      0.1178    
   121.0      0.1174    
   121.5      0.1171    
   122.0      0.1169    
   122.5      0.1168    
   123.0      0.1167    
   123.5      0.1167    
   124.0      0.1167    
   124.5      0.1168    
   125.0      0.1170    
   125.5      0.1172    
   126.0      0.1175    
   126.5      0.1178    
   127.0      0.1182    
   127.5      0.1186    
   128.0      0.1191    
   128.5      0.1196    
   129.0      0.1201    
   129.5      0.1207    
   130.0      0.1213    
   130.5      0.1219    
   131.0      0.1226    
   131.5      0.1233    
   132.0      0.1239    
   132.5      0.1247    
   133.0      0.1254    
   133.5      0.1261    
   134.0      0.1268    
   134.5      0.1276    
   135.0      0.1283    
   135.5      0.1290    
   136.0      0.1298    
   136.5      0.1305    
   137.0      0.1312    
   137.5      0.1319    
   138.0      0.1326    
   138.5      0.1332    
   139.0      0.1339    
   139.5      0.1345    
   140.0      0.1351    
   140.5      0.1356    
   141.0      0.1362    
   141.5      0.1367    
   142.0      0.1372    
   142.5      0.1376    
   143.0      0.1380    
   143.5      0.1384    
   144.0      0.1387    
   144.5      0.1390    
   145.0      0.1393    
   145.5      0.1395    
   146.0      0.1397    
   146.5      0.1399    
   147.0      0.1400    
   147.5      0.1400    
   148.0      0.1401    
   148.5      0.1401    
   149.0      0.1400    
   149.5      0.1399    
   150.0      0.1398    
   150.5      0.1397    
   151.0      0.1395    
   151.5      0.1393    
   152.0      0.1390    
   152.5      0.1387    
   153.0      0.1384    
   153.5      0.1380    
   154.0      0.1377    
   154.5      0.1373    
   155.0      0.1368    
   155.5      0.1364    
   156.0      0.1359    
   156.5      0.1354    
   157.0      0.1349    
   157.5      0.1343    
   158.0      0.1338    
   158.5      0.1332    
   159.0      0.1326    
   159.5      0.1320    
   160.0      0.1314    
   160.5      0.1308    
   161.0      0.1302    
   161.5      0.1296    
   162.0      0.1289    
   162.5      0.1283    
   163.0      0.1277    
   163.5      0.1270    
   164.0      0.1264    
   164.5      0.1258    
   165.0      0.1252    
   165.5      0.1246    
   166.0      0.1240    
   166.5      0.1234    
   167.0      0.1228    
   167.5      0.1222    
   168.0      0.1217    
   168.5      0.1211    
   169.0      0.1206    
   169.5      0.1201    
   170.0      0.1196    
   170.5      0.1191    
   171.0      0.1187    
   171.5      0.1183    
   172.0      0.1178    
   172.5      0.1175    
   173.0      0.1171    
   173.5      0.1167    
   174.0      0.1164    
   174.5      0.1161    
   175.0      0.1159    
   175.5      0.1156    
   176.0      0.1154    
   176.5      0.1152    
   177.0      0.1150    
   177.5      0.1149    
   178.0      0.1147    
   178.5      0.1146    
   179.0      0.1146    
   179.5      0.1145    
   180.0      0.1145    
 END
@legend string   2 "Partition=  2 Excit=  2 near/far= 1"
#legend string   0 "Lab energy =   98.9000"
@s2 linestyle   3
#  Theta       sigma       iT11        T20         T21         T22         Kyy for projectile
   0.000       5.030    
  0.5000       5.025    
   1.000       5.008    
   1.500       4.982    
   2.000       4.944    
   2.500       4.897    
   3.000       4.839    
   3.500       4.772    
   4.000       4.696    
   4.500       4.611    
   5.000       4.518    
   5.500       4.417    
   6.000       4.310    
   6.500       4.196    
   7.000       4.076    
   7.500       3.952    
   8.000       3.823    
   8.500       3.690    
   9.000       3.555    
   9.500       3.417    
   10.00       3.278    
   10.50       3.138    
   11.00       2.998    
   11.50       2.859    
   12.00       2.721    
   12.50       2.584    
   13.00       2.450    
   13.50       2.319    
   14.00       2.191    
   14.50       2.067    
   15.00       1.947    
   15.50       1.831    
   16.00       1.721    
   16.50       1.615    
   17.00       1.515    
   17.50       1.419    
   18.00       1.330    
   18.50       1.246    
   19.00       1.168    
   19.50       1.095    
   20.00       1.028    
   20.50      0.9668    
   21.00      0.9108    
   21.50      0.8601    
   22.00      0.8146    
   22.50      0.7740    
   23.00      0.7382    
   23.50      0.7069    
   24.00      0.6799    
   24.50      0.6570    
   25.00      0.6379    
   25.50      0.6222    
   26.00      0.6098    
   26.50      0.6004    
   27.00      0.5937    
   27.50      0.5894    
   28.00      0.5872    
   28.50      0.5869    
   29.00      0.5882    
   29.50      0.5909    
   30.00      0.5948    
   30.50      0.5995    
   31.00      0.6049    
   31.50      0.6108    
   32.00      0.6169    
   32.50      0.6232    
   33.00      0.6294    
   33.50      0.6354    
   34.00      0.6410    
   34.50      0.6461    
   35.00      0.6507    
   35.50      0.6545    
   36.00      0.6576    
   36.50      0.6599    
   37.00      0.6613    
   37.50      0.6617    
   38.00      0.6612    
   38.50      0.6597    
   39.00      0.6572    
   39.50      0.6537    
   40.00      0.6493    
   40.50      0.6438    
   41.00      0.6374    
   41.50      0.6301    
   42.00      0.6220    
   42.50      0.6130    
   43.00      0.6032    
   43.50      0.5926    
   44.00      0.5814    
   44.50      0.5696    
   45.00      0.5572    
   45.50      0.5443    
   46.00      0.5310    
   46.50      0.5173    
   47.00      0.5033    
   47.50      0.4890    
   48.00      0.4746    
   48.50      0.4600    
   49.00      0.4454    
   49.50      0.4307    
   50.00      0.4161    
   50.50      0.4016    
   51.00      0.3872    
   51.50      0.3730    
   52.00      0.3591    
   52.50      0.3454    
   53.00      0.3320    
   53.50      0.3190    
   54.00      0.3064    
   54.50      0.2941    
   55.00      0.2823    
   55.50      0.2710    
   56.00      0.2601    
   56.50      0.2497    
   57.00      0.2397    
   57.50      0.2303    
   58.00      0.2214    
   58.50      0.2130    
   59.00      0.2051    
   59.50      0.1977    
   60.00      0.1908    
   60.50      0.1844    
   61.00      0.1785    
   61.50      0.1731    
   62.00      0.1681    
   62.50      0.1636    
   63.00      0.1595    
   63.50      0.1559    
   64.00      0.1526    
   64.50      0.1497    
   65.00      0.1472    
   65.50      0.1451    
   66.00      0.1432    
   66.50      0.1417    
   67.00      0.1404    
   67.50      0.1394    
   68.00      0.1386    
   68.50      0.1381    
   69.00      0.1377    
   69.50      0.1376    
   70.00      0.1375    
   70.50      0.1377    
   71.00      0.1379    
   71.50      0.1382    
   72.00      0.1386    
   72.50      0.1391    
   73.00      0.1396    
   73.50      0.1402    
   74.00      0.1407    
   74.50      0.1413    
   75.00      0.1418    
   75.50      0.1424    
   76.00      0.1429    
   76.50      0.1433    
   77.00      0.1437    
   77.50      0.1440    
   78.00      0.1443    
   78.50      0.1444    
   79.00      0.1445    
   79.50      0.1445    
   80.00      0.1444    
   80.50      0.1443    
   81.00      0.1440    
   81.50      0.1436    
   82.00      0.1431    
   82.50      0.1425    
   83.00      0.1418    
   83.50      0.1410    
   84.00      0.1401    
   84.50      0.1391    
   85.00      0.1380    
   85.50      0.1368    
   86.00      0.1355    
   86.50      0.1341    
   87.00      0.1327    
   87.50      0.1311    
   88.00      0.1295    
   88.50      0.1279    
   89.00      0.1261    
   89.50      0.1243    
   90.00      0.1225    
   90.50      0.1206    
   91.00      0.1187    
   91.50      0.1167    
   92.00      0.1148    
   92.50      0.1127    
   93.00      0.1107    
   93.50      0.1087    
   94.00      0.1067    
   94.50      0.1046    
   95.00      0.1026    
   95.50      0.1006    
   96.00      0.9861E-01
   96.50      0.9664E-01
   97.00      0.9470E-01
   97.50      0.9279E-01
   98.00      0.9092E-01
   98.50      0.8910E-01
   99.00      0.8732E-01
   99.50      0.8559E-01
   100.0      0.8391E-01
   100.5      0.8230E-01
   101.0      0.8074E-01
   101.5      0.7925E-01
   102.0      0.7782E-01
   102.5      0.7646E-01
   103.0      0.7517E-01
   103.5      0.7395E-01
   104.0      0.7281E-01
   104.5      0.7175E-01
   105.0      0.7075E-01
   105.5      0.6984E-01
   106.0      0.6900E-01
   106.5      0.6824E-01
   107.0      0.6756E-01
   107.5      0.6696E-01
   108.0      0.6643E-01
   108.5      0.6598E-01
   109.0      0.6561E-01
   109.5      0.6531E-01
   110.0      0.6508E-01
   110.5      0.6492E-01
   111.0      0.6484E-01
   111.5      0.6482E-01
   112.0      0.6487E-01
   112.5      0.6498E-01
   113.0      0.6515E-01
   113.5      0.6539E-01
   114.0      0.6568E-01
   114.5      0.6602E-01
   115.0      0.6642E-01
   115.5      0.6687E-01
   116.0      0.6736E-01
   116.5      0.6789E-01
   117.0      0.6847E-01
   117.5      0.6908E-01
   118.0      0.6973E-01
   118.5      0.7041E-01
   119.0      0.7111E-01
   119.5      0.7184E-01
   120.0      0.7260E-01
   120.5      0.7337E-01
   121.0      0.7416E-01
   121.5      0.7496E-01
   122.0      0.7577E-01
   122.5      0.7660E-01
   123.0      0.7742E-01
   123.5      0.7825E-01
   124.0      0.7908E-01
   124.5      0.7990E-01
   125.0      0.8072E-01
   125.5      0.8153E-01
   126.0      0.8234E-01
   126.5      0.8313E-01
   127.0      0.8391E-01
   127.5      0.8467E-01
   128.0      0.8541E-01
   128.5      0.8614E-01
   129.0      0.8685E-01
   129.5      0.8753E-01
   130.0      0.8820E-01
   130.5      0.8884E-01
   131.0      0.8945E-01
   131.5      0.9004E-01
   132.0      0.9061E-01
   132.5      0.9115E-01
   133.0      0.9166E-01
   133.5      0.9215E-01
   134.0      0.9261E-01
   134.5      0.9305E-01
   135.0      0.9346E-01
   135.5      0.9384E-01
   136.0      0.9420E-01
   136.5      0.9453E-01
   137.0      0.9484E-01
   137.5      0.9513E-01
   138.0      0.9539E-01
   138.5      0.9563E-01
   139.0      0.9586E-01
   139.5      0.9606E-01
   140.0      0.9625E-01
   140.5      0.9642E-01
   141.0      0.9658E-01
   141.5      0.9672E-01
   142.0      0.9685E-01
   142.5      0.9697E-01
   143.0      0.9708E-01
   143.5      0.9719E-01
   144.0      0.9729E-01
   144.5      0.9738E-01
   145.0      0.9748E-01
   145.5      0.9757E-01
   146.0      0.9766E-01
   146.5      0.9776E-01
   147.0      0.9786E-01
   147.5      0.9797E-01
   148.0      0.9808E-01
   148.5      0.9821E-01
   149.0      0.9834E-01
   149.5      0.9848E-01
   150.0      0.9864E-01
   150.5      0.9881E-01
   151.0      0.9900E-01
   151.5      0.9920E-01
   152.0      0.9941E-01
   152.5      0.9965E-01
   153.0      0.9990E-01
   153.5      0.1002    
   154.0      0.1005    
   154.5      0.1008    
   155.0      0.1011    
   155.5      0.1015    
   156.0      0.1018    
   156.5      0.1022    
   157.0      0.1026    
   157.5      0.1031    
   158.0      0.1035    
   158.5      0.1040    
   159.0      0.1045    
   159.5      0.1050    
   160.0      0.1055    
   160.5      0.1061    
   161.0      0.1066    
   161.5      0.1072    
   162.0      0.1078    
   162.5      0.1084    
   163.0      0.1090    
   163.5      0.1096    
   164.0      0.1102    
   164.5      0.1108    
   165.0      0.1114    
   165.5      0.1121    
   166.0      0.1127    
   166.5      0.1133    
   167.0      0.1140    
   167.5      0.1146    
   168.0      0.1152    
   168.5      0.1158    
   169.0      0.1164    
   169.5      0.1170    
   170.0      0.1176    
   170.5      0.1181    
   171.0      0.1187    
   171.5      0.1192    
   172.0      0.1197    
   172.5      0.1202    
   173.0      0.1206    
   173.5      0.1211    
   174.0      0.1215    
   174.5      0.1218    
   175.0      0.1222    
   175.5      0.1225    
   176.0      0.1228    
   176.5      0.1231    
   177.0      0.1233    
   177.5      0.1235    
   178.0      0.1236    
   178.5      0.1237    
   179.0      0.1238    
   179.5      0.1239    
   180.0      0.1239    
 END
@legend string   3 "Partition=  2 Excit=  3 near/far= 1"
#legend string   0 "Lab energy =   98.9000"
@s3 linestyle   4
#  Theta       sigma       iT11        T20         T21         T22         Kyy for projectile
   0.000       19.53    
  0.5000       19.51    
   1.000       19.47    
   1.500       19.39    
   2.000       19.29    
   2.500       19.15    
   3.000       18.98    
   3.500       18.79    
   4.000       18.57    
   4.500       18.33    
   5.000       18.06    
   5.500       17.76    
   6.000       17.45    
   6.500       17.11    
   7.000       16.76    
   7.500       16.39    
   8.000       16.01    
   8.500       15.61    
   9.000       15.20    
   9.500       14.78    
   10.00       14.35    
   10.50       13.92    
   11.00       13.48    
   11.50       13.04    
   12.00       12.60    
   12.50       12.17    
   13.00       11.73    
   13.50       11.30    
   14.00       10.87    
   14.50       10.45    
   15.00       10.03    
   15.50       9.630    
   16.00       9.235    
   16.50       8.851    
   17.00       8.479    
   17.50       8.119    
   18.00       7.771    
   18.50       7.437    
   19.00       7.117    
   19.50       6.811    
   20.00       6.518    
   20.50       6.241    
   21.00       5.977    
   21.50       5.728    
   22.00       5.493    
   22.50       5.272    
   23.00       5.065    
   23.50       4.871    
   24.00       4.690    
   24.50       4.522    
   25.00       4.366    
   25.50       4.221    
   26.00       4.088    
   26.50       3.966    
   27.00       3.853    
   27.50       3.750    
   28.00       3.656    
   28.50       3.570    
   29.00       3.492    
   29.50       3.421    
   30.00       3.357    
   30.50       3.298    
   31.00       3.245    
   31.50       3.197    
   32.00       3.153    
   32.50       3.113    
   33.00       3.076    
   33.50       3.042    
   34.00       3.011    
   34.50       2.981    
   35.00       2.953    
   35.50       2.926    
   36.00       2.900    
   36.50       2.875    
   37.00       2.850    
   37.50       2.826    
   38.00       2.801    
   38.50       2.775    
   39.00       2.750    
   39.50       2.723    
   40.00       2.696    
   40.50       2.668    
   41.00       2.638    
   41.50       2.608    
   42.00       2.577    
   42.50       2.544    
   43.00       2.511    
   43.50       2.476    
   44.00       2.440    
   44.50       2.403    
   45.00       2.365    
   45.50       2.326    
   46.00       2.286    
   46.50       2.246    
   47.00       2.204    
   47.50       2.162    
   48.00       2.119    
   48.50       2.076    
   49.00       2.032    
   49.50       1.988    
   50.00       1.944    
   50.50       1.900    
   51.00       1.855    
   51.50       1.811    
   52.00       1.767    
   52.50       1.723    
   53.00       1.680    
   53.50       1.637    
   54.00       1.594    
   54.50       1.553    
   55.00       1.511    
   55.50       1.471    
   56.00       1.432    
   56.50       1.393    
   57.00       1.355    
   57.50       1.319    
   58.00       1.283    
   58.50       1.249    
   59.00       1.215    
   59.50       1.183    
   60.00       1.152    
   60.50       1.122    
   61.00       1.094    
   61.50       1.066    
   62.00       1.040    
   62.50       1.015    
   63.00      0.9911    
   63.50      0.9686    
   64.00      0.9473    
   64.50      0.9271    
   65.00      0.9081    
   65.50      0.8903    
   66.00      0.8735    
   66.50      0.8579    
   67.00      0.8433    
   67.50      0.8297    
   68.00      0.8172    
   68.50      0.8056    
   69.00      0.7949    
   69.50      0.7850    
   70.00      0.7760    
   70.50      0.7678    
   71.00      0.7604    
   71.50      0.7536    
   72.00      0.7476    
   72.50      0.7421    
   73.00      0.7372    
   73.50      0.7329    
   74.00      0.7290    
   74.50      0.7256    
   75.00      0.7226    
   75.50      0.7199    
   76.00      0.7176    
   76.50      0.7156    
   77.00      0.7138    
   77.50      0.7123    
   78.00      0.7109    
   78.50      0.7096    
   79.00      0.7085    
   79.50      0.7075    
   80.00      0.7065    
   80.50      0.7055    
   81.00      0.7045    
   81.50      0.7035    
   82.00      0.7025    
   82.50      0.7013    
   83.00      0.7001    
   83.50      0.6988    
   84.00      0.6973    
   84.50      0.6957    
   85.00      0.6939    
   85.50      0.6920    
   86.00      0.6899    
   86.50      0.6876    
   87.00      0.6851    
   87.50      0.6824    
   88.00      0.6794    
   88.50      0.6763    
   89.00      0.6730    
   89.50      0.6694    
   90.00      0.6656    
   90.50      0.6616    
   91.00      0.6574    
   91.50      0.6529    
   92.00      0.6483    
   92.50      0.6434    
   93.00      0.6384    
   93.50      0.6331    
   94.00      0.6277    
   94.50      0.6221    
   95.00      0.6163    
   95.50      0.6103    
   96.00      0.6042    
   96.50      0.5980    
   97.00      0.5915    
   97.50      0.5850    
   98.00      0.5784    
   98.50      0.5716    
   99.00      0.5647    
   99.50      0.5578    
   100.0      0.5508    
   100.5      0.5437    
   101.0      0.5365    
   101.5      0.5293    
   102.0      0.5220    
   102.5      0.5148    
   103.0      0.5075    
   103.5      0.5002    
   104.0      0.4929    
   104.5      0.4856    
   105.0      0.4783    
   105.5      0.4711    
   106.0      0.4639    
   106.5      0.4567    
   107.0      0.4496    
   107.5      0.4426    
   108.0      0.4356    
   108.5      0.4288    
   109.0      0.4220    
   109.5      0.4153    
   110.0      0.4087    
   110.5      0.4022    
   111.0      0.3959    
   111.5      0.3896    
   112.0      0.3835    
   112.5      0.3775    
   113.0      0.3717    
   113.5      0.3660    
   114.0      0.3604    
   114.5      0.3550    
   115.0      0.3497    
   115.5      0.3446    
   116.0      0.3396    
   116.5      0.3348    
   117.0      0.3301    
   117.5      0.3256    
   118.0      0.3213    
   118.5      0.3171    
   119.0      0.3131    
   119.5      0.3093    
   120.0      0.3056    
   120.5      0.3020    
   121.0      0.2987    
   121.5      0.2955    
   122.0      0.2925    
   122.5      0.2896    
   123.0      0.2869    
   123.5      0.2843    
   124.0      0.2819    
   124.5      0.2797    
   125.0      0.2776    
   125.5      0.2757    
   126.0      0.2739    
   126.5      0.2722    
   127.0      0.2707    
   127.5      0.2694    
   128.0      0.2682    
   128.5      0.2671    
   129.0      0.2662    
   129.5      0.2654    
   130.0      0.2647    
   130.5      0.2641    
   131.0      0.2637    
   131.5      0.2634    
   132.0      0.2632    
   132.5      0.2631    
   133.0      0.2632    
   133.5      0.2633    
   134.0      0.2636    
   134.5      0.2639    
   135.0      0.2644    
   135.5      0.2649    
   136.0      0.2655    
   136.5      0.2662    
   137.0      0.2670    
   137.5      0.2679    
   138.0      0.2689    
   138.5      0.2699    
   139.0      0.2710    
   139.5      0.2722    
   140.0      0.2734    
   140.5      0.2747    
   141.0      0.2761    
   141.5      0.2775    
   142.0      0.2789    
   142.5      0.2805    
   143.0      0.2820    
   143.5      0.2836    
   144.0      0.2853    
   144.5      0.2869    
   145.0      0.2887    
   145.5      0.2904    
   146.0      0.2922    
   146.5      0.2940    
   147.0      0.2958    
   147.5      0.2976    
   148.0      0.2995    
   148.5      0.3014    
   149.0      0.3033    
   149.5      0.3052    
   150.0      0.3071    
   150.5      0.3090    
   151.0      0.3110    
   151.5      0.3129    
   152.0      0.3148    
   152.5      0.3167    
   153.0      0.3187    
   153.5      0.3206    
   154.0      0.3225    
   154.5      0.3244    
   155.0      0.3263    
   155.5      0.3282    
   156.0      0.3301    
   156.5      0.3319    
   157.0      0.3338    
   157.5      0.3356    
   158.0      0.3374    
   158.5      0.3391    
   159.0      0.3409    
   159.5      0.3426    
   160.0      0.3443    
   160.5      0.3460    
   161.0      0.3476    
   161.5      0.3493    
   162.0      0.3509    
   162.5      0.3524    
   163.0      0.3539    
   163.5      0.3554    
   164.0      0.3569    
   164.5      0.3583    
   165.0      0.3597    
   165.5      0.3610    
   166.0      0.3623    
   166.5      0.3636    
   167.0      0.3648    
   167.5      0.3660    
   168.0      0.3672    
   168.5      0.3683    
   169.0      0.3693    
   169.5      0.3703    
   170.0      0.3713    
   170.5      0.3722    
   171.0      0.3731    
   171.5      0.3740    
   172.0      0.3748    
   172.5      0.3755    
   173.0      0.3762    
   173.5      0.3769    
   174.0      0.3775    
   174.5      0.3780    
   175.0      0.3786    
   175.5      0.3790    
   176.0      0.3794    
   176.5      0.3798    
   177.0      0.3801    
   177.5      0.3804    
   178.0      0.3806    
   178.5      0.3808    
   179.0      0.3809    
   179.5      0.3810    
   180.0      0.3810    
 END
@legend string   4 "Partition=  2 Excit=  4 near/far= 1"
#legend string   0 "Lab energy =   98.9000"
@s4 linestyle   5
#  Theta       sigma       iT11        T20         T21         T22         Kyy for projectile
   0.000       2.376    
  0.5000       2.375    
   1.000       2.370    
   1.500       2.363    
   2.000       2.353    
   2.500       2.340    
   3.000       2.324    
   3.500       2.305    
   4.000       2.284    
   4.500       2.260    
   5.000       2.234    
   5.500       2.206    
   6.000       2.175    
   6.500       2.143    
   7.000       2.108    
   7.500       2.072    
   8.000       2.035    
   8.500       1.996    
   9.000       1.956    
   9.500       1.914    
   10.00       1.872    
   10.50       1.830    
   11.00       1.786    
   11.50       1.743    
   12.00       1.699    
   12.50       1.655    
   13.00       1.611    
   13.50       1.567    
   14.00       1.524    
   14.50       1.481    
   15.00       1.439    
   15.50       1.397    
   16.00       1.357    
   16.50       1.317    
   17.00       1.278    
   17.50       1.240    
   18.00       1.203    
   18.50       1.167    
   19.00       1.133    
   19.50       1.100    
   20.00       1.068    
   20.50       1.037    
   21.00       1.007    
   21.50      0.9790    
   22.00      0.9521    
   22.50      0.9263    
   23.00      0.9018    
   23.50      0.8786    
   24.00      0.8564    
   24.50      0.8355    
   25.00      0.8156    
   25.50      0.7968    
   26.00      0.7790    
   26.50      0.7621    
   27.00      0.7462    
   27.50      0.7311    
   28.00      0.7169    
   28.50      0.7034    
   29.00      0.6906    
   29.50      0.6785    
   30.00      0.6669    
   30.50      0.6559    
   31.00      0.6454    
   31.50      0.6353    
   32.00      0.6256    
   32.50      0.6163    
   33.00      0.6073    
   33.50      0.5985    
   34.00      0.5899    
   34.50      0.5816    
   35.00      0.5733    
   35.50      0.5652    
   36.00      0.5572    
   36.50      0.5493    
   37.00      0.5414    
   37.50      0.5335    
   38.00      0.5256    
   38.50      0.5177    
   39.00      0.5097    
   39.50      0.5017    
   40.00      0.4937    
   40.50      0.4856    
   41.00      0.4774    
   41.50      0.4692    
   42.00      0.4608    
   42.50      0.4525    
   43.00      0.4440    
   43.50      0.4355    
   44.00      0.4270    
   44.50      0.4184    
   45.00      0.4097    
   45.50      0.4011    
   46.00      0.3924    
   46.50      0.3837    
   47.00      0.3750    
   47.50      0.3663    
   48.00      0.3576    
   48.50      0.3489    
   49.00      0.3404    
   49.50      0.3318    
   50.00      0.3234    
   50.50      0.3150    
   51.00      0.3067    
   51.50      0.2985    
   52.00      0.2904    
   52.50      0.2825    
   53.00      0.2747    
   53.50      0.2671    
   54.00      0.2596    
   54.50      0.2523    
   55.00      0.2451    
   55.50      0.2381    
   56.00      0.2314    
   56.50      0.2248    
   57.00      0.2184    
   57.50      0.2122    
   58.00      0.2062    
   58.50      0.2005    
   59.00      0.1949    
   59.50      0.1896    
   60.00      0.1845    
   60.50      0.1796    
   61.00      0.1749    
   61.50      0.1705    
   62.00      0.1662    
   62.50      0.1622    
   63.00      0.1583    
   63.50      0.1547    
   64.00      0.1513    
   64.50      0.1481    
   65.00      0.1451    
   65.50      0.1422    
   66.00      0.1396    
   66.50      0.1371    
   67.00      0.1348    
   67.50      0.1327    
   68.00      0.1307    
   68.50      0.1289    
   69.00      0.1272    
   69.50      0.1257    
   70.00      0.1243    
   70.50      0.1230    
   71.00      0.1218    
   71.50      0.1208    
   72.00      0.1198    
   72.50      0.1190    
   73.00      0.1182    
   73.50      0.1175    
   74.00      0.1169    
   74.50      0.1164    
   75.00      0.1159    
   75.50      0.1155    
   76.00      0.1152    
   76.50      0.1148    
   77.00      0.1145    
   77.50      0.1143    
   78.00      0.1141    
   78.50      0.1138    
   79.00      0.1136    
   79.50      0.1135    
   80.00      0.1133    
   80.50      0.1131    
   81.00      0.1129    
   81.50      0.1127    
   82.00      0.1125    
   82.50      0.1123    
   83.00      0.1120    
   83.50      0.1118    
   84.00      0.1115    
   84.50      0.1112    
   85.00      0.1109    
   85.50      0.1105    
   86.00      0.1101    
   86.50      0.1097    
   87.00      0.1092    
   87.50      0.1087    
   88.00      0.1082    
   88.50      0.1076    
   89.00      0.1070    
   89.50      0.1063    
   90.00      0.1056    
   90.50      0.1049    
   91.00      0.1042    
   91.50      0.1034    
   92.00      0.1025    
   92.50      0.1017    
   93.00      0.1007    
   93.50      0.9981E-01
   94.00      0.9884E-01
   94.50      0.9784E-01
   95.00      0.9680E-01
   95.50      0.9574E-01
   96.00      0.9465E-01
   96.50      0.9354E-01
   97.00      0.9240E-01
   97.50      0.9124E-01
   98.00      0.9005E-01
   98.50      0.8885E-01
   99.00      0.8763E-01
   99.50      0.8639E-01
   100.0      0.8514E-01
   100.5      0.8387E-01
   101.0      0.8260E-01
   101.5      0.8131E-01
   102.0      0.8002E-01
   102.5      0.7872E-01
   103.0      0.7742E-01
   103.5      0.7611E-01
   104.0      0.7480E-01
   104.5      0.7350E-01
   105.0      0.7219E-01
   105.5      0.7089E-01
   106.0      0.6960E-01
   106.5      0.6831E-01
   107.0      0.6703E-01
   107.5      0.6575E-01
   108.0      0.6449E-01
   108.5      0.6325E-01
   109.0      0.6201E-01
   109.5      0.6079E-01
   110.0      0.5959E-01
   110.5      0.5840E-01
   111.0      0.5723E-01
   111.5      0.5608E-01
   112.0      0.5495E-01
   112.5      0.5385E-01
   113.0      0.5276E-01
   113.5      0.5170E-01
   114.0      0.5065E-01
   114.5      0.4964E-01
   115.0      0.4864E-01
   115.5      0.4768E-01
   116.0      0.4673E-01
   116.5      0.4582E-01
   117.0      0.4493E-01
   117.5      0.4406E-01
   118.0      0.4323E-01
   118.5      0.4242E-01
   119.0      0.4163E-01
   119.5      0.4088E-01
   120.0      0.4015E-01
   120.5      0.3945E-01
   121.0      0.3878E-01
   121.5      0.3813E-01
   122.0      0.3752E-01
   122.5      0.3693E-01
   123.0      0.3636E-01
   123.5      0.3583E-01
   124.0      0.3532E-01
   124.5      0.3483E-01
   125.0      0.3438E-01
   125.5      0.3394E-01
   126.0      0.3354E-01
   126.5      0.3316E-01
   127.0      0.3280E-01
   127.5      0.3247E-01
   128.0      0.3217E-01
   128.5      0.3189E-01
   129.0      0.3163E-01
   129.5      0.3139E-01
   130.0      0.3118E-01
   130.5      0.3099E-01
   131.0      0.3082E-01
   131.5      0.3067E-01
   132.0      0.3055E-01
   132.5      0.3044E-01
   133.0      0.3035E-01
   133.5      0.3028E-01
   134.0      0.3023E-01
   134.5      0.3020E-01
   135.0      0.3019E-01
   135.5      0.3019E-01
   136.0      0.3021E-01
   136.5      0.3024E-01
   137.0      0.3029E-01
   137.5      0.3036E-01
   138.0      0.3044E-01
   138.5      0.3053E-01
   139.0      0.3064E-01
   139.5      0.3076E-01
   140.0      0.3089E-01
   140.5      0.3103E-01
   141.0      0.3119E-01
   141.5      0.3135E-01
   142.0      0.3152E-01
   142.5      0.3171E-01
   143.0      0.3190E-01
   143.5      0.3211E-01
   144.0      0.3232E-01
   144.5      0.3253E-01
   145.0      0.3276E-01
   145.5      0.3299E-01
   146.0      0.3323E-01
   146.5      0.3347E-01
   147.0      0.3372E-01
   147.5      0.3398E-01
   148.0      0.3424E-01
   148.5      0.3450E-01
   149.0      0.3477E-01
   149.5      0.3504E-01
   150.0      0.3531E-01
   150.5      0.3558E-01
   151.0      0.3586E-01
   151.5      0.3614E-01
   152.0      0.3642E-01
   152.5      0.3670E-01
   153.0      0.3699E-01
   153.5      0.3727E-01
   154.0      0.3755E-01
   154.5      0.3783E-01
   155.0      0.3812E-01
   155.5      0.3840E-01
   156.0      0.3868E-01
   156.5      0.3896E-01
   157.0      0.3923E-01
   157.5      0.3951E-01
   158.0      0.3978E-01
   158.5      0.4005E-01
   159.0      0.4032E-01
   159.5      0.4058E-01
   160.0      0.4084E-01
   160.5      0.4110E-01
   161.0      0.4135E-01
   161.5      0.4160E-01
   162.0      0.4184E-01
   162.5      0.4209E-01
   163.0      0.4232E-01
   163.5      0.4255E-01
   164.0      0.4278E-01
   164.5      0.4300E-01
   165.0      0.4322E-01
   165.5      0.4343E-01
   166.0      0.4363E-01
   166.5      0.4383E-01
   167.0      0.4402E-01
   167.5      0.4421E-01
   168.0      0.4439E-01
   168.5      0.4456E-01
   169.0      0.4473E-01
   169.5      0.4489E-01
   170.0      0.4505E-01
   170.5      0.4519E-01
   171.0      0.4533E-01
   171.5      0.4547E-01
   172.0      0.4559E-01
   172.5      0.4571E-01
   173.0      0.4582E-01
   173.5      0.4593E-01
   174.0      0.4603E-01
   174.5      0.4611E-01
   175.0      0.4620E-01
   175.5      0.4627E-01
   176.0      0.4634E-01
   176.5      0.4640E-01
   177.0      0.4645E-01
   177.5      0.4649E-01
   178.0      0.4653E-01
   178.5      0.4655E-01
   179.0      0.4657E-01
   179.5      0.4658E-01
   180.0      0.4659E-01
 END
@legend string   5 "Partition=  2 Excit=  5 near/far= 1"
#legend string   0 "Lab energy =   98.9000"
@s5 linestyle   1
#  Theta       sigma       iT11        T20         T21         T22         Kyy for projectile
   0.000       6.157    
  0.5000       6.156    
   1.000       6.154    
   1.500       6.149    
   2.000       6.143    
   2.500       6.135    
   3.000       6.124    
   3.500       6.112    
   4.000       6.098    
   4.500       6.082    
   5.000       6.064    
   5.500       6.044    
   6.000       6.022    
   6.500       5.997    
   7.000       5.970    
   7.500       5.941    
   8.000       5.909    
   8.500       5.875    
   9.000       5.838    
   9.500       5.799    
   10.00       5.757    
   10.50       5.712    
   11.00       5.665    
   11.50       5.615    
   12.00       5.562    
   12.50       5.506    
   13.00       5.448    
   13.50       5.387    
   14.00       5.323    
   14.50       5.257    
   15.00       5.188    
   15.50       5.116    
   16.00       5.042    
   16.50       4.965    
   17.00       4.886    
   17.50       4.805    
   18.00       4.722    
   18.50       4.637    
   19.00       4.550    
   19.50       4.461    
   20.00       4.371    
   20.50       4.279    
   21.00       4.186    
   21.50       4.091    
   22.00       3.996    
   22.50       3.900    
   23.00       3.804    
   23.50       3.707    
   24.00       3.609    
   24.50       3.512    
   25.00       3.415    
   25.50       3.318    
   26.00       3.222    
   26.50       3.126    
   27.00       3.031    
   27.50       2.937    
   28.00       2.844    
   28.50       2.753    
   29.00       2.663    
   29.50       2.574    
   30.00       2.487    
   30.50       2.402    
   31.00       2.319    
   31.50       2.238    
   32.00       2.159    
   32.50       2.083    
   33.00       2.008    
   33.50       1.937    
   34.00       1.867    
   34.50       1.800    
   35.00       1.736    
   35.50       1.674    
   36.00       1.615    
   36.50       1.558    
   37.00       1.504    
   37.50       1.453    
   38.00       1.404    
   38.50       1.358    
   39.00       1.315    
   39.50       1.274    
   40.00       1.235    
   40.50       1.200    
   41.00       1.166    
   41.50       1.135    
   42.00       1.106    
   42.50       1.080    
   43.00       1.056    
   43.50       1.033    
   44.00       1.013    
   44.50      0.9951    
   45.00      0.9789    
   45.50      0.9644    
   46.00      0.9517    
   46.50      0.9406    
   47.00      0.9311    
   47.50      0.9230    
   48.00      0.9163    
   48.50      0.9109    
   49.00      0.9067    
   49.50      0.9036    
   50.00      0.9015    
   50.50      0.9004    
   51.00      0.9001    
   51.50      0.9006    
   52.00      0.9018    
   52.50      0.9036    
   53.00      0.9060    
   53.50      0.9088    
   54.00      0.9120    
   54.50      0.9155    
   55.00      0.9193    
   55.50      0.9234    
   56.00      0.9275    
   56.50      0.9317    
   57.00      0.9360    
   57.50      0.9402    
   58.00      0.9444    
   58.50      0.9484    
   59.00      0.9523    
   59.50      0.9560    
   60.00      0.9595    
   60.50      0.9627    
   61.00      0.9656    
   61.50      0.9682    
   62.00      0.9704    
   62.50      0.9723    
   63.00      0.9738    
   63.50      0.9749    
   64.00      0.9755    
   64.50      0.9757    
   65.00      0.9755    
   65.50      0.9749    
   66.00      0.9738    
   66.50      0.9722    
   67.00      0.9702    
   67.50      0.9678    
   68.00      0.9648    
   68.50      0.9615    
   69.00      0.9577    
   69.50      0.9534    
   70.00      0.9488    
   70.50      0.9437    
   71.00      0.9382    
   71.50      0.9323    
   72.00      0.9260    
   72.50      0.9194    
   73.00      0.9124    
   73.50      0.9050    
   74.00      0.8974    
   74.50      0.8894    
   75.00      0.8811    
   75.50      0.8726    
   76.00      0.8637    
   76.50      0.8546    
   77.00      0.8453    
   77.50      0.8358    
   78.00      0.8261    
   78.50      0.8162    
   79.00      0.8061    
   79.50      0.7958    
   80.00      0.7855    
   80.50      0.7750    
   81.00      0.7644    
   81.50      0.7537    
   82.00      0.7429    
   82.50      0.7320    
   83.00      0.7211    
   83.50      0.7102    
   84.00      0.6992    
   84.50      0.6882    
   85.00      0.6772    
   85.50      0.6663    
   86.00      0.6553    
   86.50      0.6444    
   87.00      0.6335    
   87.50      0.6227    
   88.00      0.6119    
   88.50      0.6012    
   89.00      0.5905    
   89.50      0.5800    
   90.00      0.5695    
   90.50      0.5591    
   91.00      0.5488    
   91.50      0.5386    
   92.00      0.5286    
   92.50      0.5186    
   93.00      0.5088    
   93.50      0.4991    
   94.00      0.4895    
   94.50      0.4801    
   95.00      0.4708    
   95.50      0.4616    
   96.00      0.4526    
   96.50      0.4437    
   97.00      0.4350    
   97.50      0.4264    
   98.00      0.4180    
   98.50      0.4097    
   99.00      0.4015    
   99.50      0.3935    
   100.0      0.3857    
   100.5      0.3780    
   101.0      0.3704    
   101.5      0.3630    
   102.0      0.3558    
   102.5      0.3487    
   103.0      0.3418    
   103.5      0.3350    
   104.0      0.3284    
   104.5      0.3219    
   105.0      0.3156    
   105.5      0.3094    
   106.0      0.3034    
   106.5      0.2975    
   107.0      0.2918    
   107.5      0.2862    
   108.0      0.2808    
   108.5      0.2755    
   109.0      0.2704    
   109.5      0.2654    
   110.0      0.2606    
   110.5      0.2559    
   111.0      0.2514    
   111.5      0.2470    
   112.0      0.2428    
   112.5      0.2387    
   113.0      0.2348    
   113.5      0.2310    
   114.0      0.2274    
   114.5      0.2239    
   115.0      0.2206    
   115.5      0.2174    
   116.0      0.2144    
   116.5      0.2115    
   117.0      0.2087    
   117.5      0.2061    
   118.0      0.2037    
   118.5      0.2014    
   119.0      0.1992    
   119.5      0.1972    
   120.0      0.1954    
   120.5      0.1937    
   121.0      0.1922    
   121.5      0.1908    
   122.0      0.1895    
   122.5      0.1884    
   123.0      0.1875    
   123.5      0.1867    
   124.0      0.1860    
   124.5      0.1855    
   125.0      0.1852    
   125.5      0.1850    
   126.0      0.1849    
   126.5      0.1850    
   127.0      0.1853    
   127.5      0.1857    
   128.0      0.1862    
   128.5      0.1869    
   129.0      0.1878    
   129.5      0.1888    
   130.0      0.1899    
   130.5      0.1912    
   131.0      0.1927    
   131.5      0.1943    
   132.0      0.1960    
   132.5      0.1978    
   133.0      0.1999    
   133.5      0.2020    
   134.0      0.2043    
   134.5      0.2067    
   135.0      0.2093    
   135.5      0.2120    
   136.0      0.2148    
   136.5      0.2177    
   137.0      0.2208    
   137.5      0.2240    
   138.0      0.2274    
   138.5      0.2308    
   139.0      0.2344    
   139.5      0.2381    
   140.0      0.2418    
   140.5      0.2458    
   141.0      0.2498    
   141.5      0.2539    
   142.0      0.2581    
   142.5      0.2624    
   143.0      0.2668    
   143.5      0.2713    
   144.0      0.2759    
   144.5      0.2806    
   145.0      0.2853    
   145.5      0.2901    
   146.0      0.2950    
   146.5      0.3000    
   147.0      0.3050    
   147.5      0.3101    
   148.0      0.3152    
   148.5      0.3204    
   149.0      0.3256    
   149.5      0.3309    
   150.0      0.3362    
   150.5      0.3416    
   151.0      0.3469    
   151.5      0.3523    
   152.0      0.3578    
   152.5      0.3632    
   153.0      0.3686    
   153.5      0.3741    
   154.0      0.3795    
   154.5      0.3850    
   155.0      0.3904    
   155.5      0.3958    
   156.0      0.4012    
   156.5      0.4066    
   157.0      0.4120    
   157.5      0.4173    
   158.0      0.4226    
   158.5      0.4278    
   159.0      0.4330    
   159.5      0.4382    
   160.0      0.4433    
   160.5      0.4483    
   161.0      0.4532    
   161.5      0.4581    
   162.0      0.4630    
   162.5      0.4677    
   163.0      0.4724    
   163.5      0.4769    
   164.0      0.4814    
   164.5      0.4858    
   165.0      0.4901    
   165.5      0.4943    
   166.0      0.4984    
   166.5      0.5024    
   167.0      0.5062    
   167.5      0.5100    
   168.0      0.5136    
   168.5      0.5171    
   169.0      0.5205    
   169.5      0.5238    
   170.0      0.5269    
   170.5      0.5299    
   171.0      0.5327    
   171.5      0.5354    
   172.0      0.5380    
   172.5      0.5404    
   173.0      0.5427    
   173.5      0.5449    
   174.0      0.5468    
   174.5      0.5487    
   175.0      0.5503    
   175.5      0.5519    
   176.0      0.5532    
   176.5      0.5544    
   177.0      0.5555    
   177.5      0.5564    
   178.0      0.5571    
   178.5      0.5577    
   179.0      0.5581    
   179.5      0.5583    
   180.0      0.5584    
 END
